File: testes_pessoal/UVvis/rGO.txt
Wavelength (nm)	Absorbance
200,0	1,338
203,0	1,275
206,0	1,229
209,0	1,196
212,0	1,177
215,0	1,167
218,0	1,163
221,0	1,162
224,0	1,161
227,0	1,157
230,0	1,150
233,0	1,142
236,0	1,139
239,0	1,144
242,0	1,155
245,0	1,171
248,0	1,191
251,0	1,212
254,0	1,233
257,0	1,252
260,0	1,267
263,0	1,278
266,0	1,282
269,0	1,278
272,0	1,267
275,0	1,248
278,0	1,223
281,0	1,191
284,0	1,157
287,0	1,117
290,0	1,075
293,0	1,033
296,0	0,989
299,0	0,948
302,0	0,909
305,0	0,872
308,0	0,836
311,0	0,804
314,0	0,775
317,0	0,749
320,0	0,726
323,0	0,707
326,0	0,690
329,0	0,676
332,0	0,662
335,0	0,650
338,0	0,638
341,0	0,626
344,0	0,615
347,0	0,605
350,0	0,594
353,0	0,584
356,0	0,574
359,0	0,564
362,0	0,554
365,0	0,543
368,0	0,533
371,0	0,522
374,0	0,511
377,0	0,500
380,0	0,489
383,0	0,477
386,0	0,466
389,0	0,454
392,0	0,443
395,0	0,433
398,0	0,422
401,0	0,412
404,0	0,402
407,0	0,392
410,0	0,382
413,0	0,373
416,0	0,364
419,0	0,357
422,0	0,349
425,0	0,342
428,0	0,335
431,0	0,328
434,0	0,322
437,0	0,316
440,0	0,310
443,0	0,304
446,0	0,299
449,0	0,294
452,0	0,289
455,0	0,284
458,0	0,279
461,0	0,275
464,0	0,271
467,0	0,266
470,0	0,262
473,0	0,259
476,0	0,255
479,0	0,251
482,0	0,248
485,0	0,244
488,0	0,241
491,0	0,238
494,0	0,235
497,0	0,232
500,0	0,230
503,0	0,227
506,0	0,224
509,0	0,222
512,0	0,220
515,0	0,217
518,0	0,215
521,0	0,213
524,0	0,211
527,0	0,209
530,0	0,207
533,0	0,205
536,0	0,203
539,0	0,201
542,0	0,199
545,0	0,198
548,0	0,196
551,0	0,194
554,0	0,192
557,0	0,191
560,0	0,189
563,0	0,188
566,0	0,186
569,0	0,185
572,0	0,183
575,0	0,182
578,0	0,180
581,0	0,179
584,0	0,177
587,0	0,176
590,0	0,175
593,0	0,174
596,0	0,172
599,0	0,171
602,0	0,170
605,0	0,169
608,0	0,168
611,0	0,167
614,0	0,166
617,0	0,165
620,0	0,163
623,0	0,162
626,0	0,161
629,0	0,160
632,0	0,159
635,0	0,159
638,0	0,158
641,0	0,157
644,0	0,156
647,0	0,155
650,0	0,154
653,0	0,153
656,0	0,152
659,0	0,152
662,0	0,151
665,0	0,150
668,0	0,149
671,0	0,149
674,0	0,148
677,0	0,147
680,0	0,147
683,0	0,146
686,0	0,145
689,0	0,145
692,0	0,144
695,0	0,143
698,0	0,143
701,0	0,142
704,0	0,142
707,0	0,141
710,0	0,141
713,0	0,140
716,0	0,140
719,0	0,139
722,0	0,139
725,0	0,138
728,0	0,138
731,0	0,137
734,0	0,137
737,0	0,136
740,0	0,136
743,0	0,135
746,0	0,135
749,0	0,135
752,0	0,134
755,0	0,134
758,0	0,134
761,0	0,133
764,0	0,132
767,0	0,132
770,0	0,132
773,0	0,132
776,0	0,131
779,0	0,131
782,0	0,130
785,0	0,130
788,0	0,130
791,0	0,129
794,0	0,129
797,0	0,129
800,0	0,128